File: measurements/ref/TRACE01XY.CSV
!Keysight Technologies,E4990A,MY54302532,A.03.02
!Date: Wed May 07 10:40:02 2025

BEGIN CH1_DATA
Frequency(Hz), R(Ohm)-data, X(Ohm)-data
50000, 27.8124, -1278.85
50391.4, 27.4453, -1268.45
50785.9, 26.9522, -1258.69
51183.5, 26.8345, -1248.47
51584.2, 26.6779, -1238.58
51988, 26.8503, -1228.83
52395, 26.4288, -1219.03
52805.1, 26.2928, -1209.28
53218.5, 26.4875, -1199.58
53635.1, 25.9712, -1190.23
54055, 26.4345, -1180.42
54478.2, 26.0194, -1171.85
54904.6, 25.6646, -1162.16
55334.5, 26.5826, -1153.43
55767.6, 25.9609, -1143.78
56204.2, 27.3626, -1135.32
56644.2, 25.1734, -1126.99
57087.6, 24.8359, -1117.68
57534.5, 24.6121, -1108.42
57984.9, 24.5646, -1099.44
58438.9, 24.7226, -1090.49
58896.3, 24.5557, -1082.77
59357.4, 24.143, -1073.59
59822.1, 23.9847, -1065.05
60290.4, 24.1329, -1056.41
60762.4, 23.7153, -1047.72
61238, 24.5221, -1040.09
61717.4, 23.6609, -1031.55
62200.6, 23.478, -1022.93
62687.5, 23.4433, -1014.8
63178.3, 23.1533, -1006.37
63672.8, 23.1211, -998.444
64171.3, 22.9508, -990.056
64673.7, 23.0522, -981.844
65179.9, 23.1402, -973.789
65690.2, 22.8146, -966.16
66204.4, 23.0415, -957.393
66722.7, 23.8152, -949.175
67245.1, 24.177, -942.512
67771.5, 23.4663, -934.115
68302, 24.0477, -925.384
68836.7, 25.4969, -916.626
69375.6, 29.8526, -908.286
69918.7, 34.3949, -907.139
70466, 32.51, -904.51
71017.7, 30.0798, -898.711
71573.6, 27.6204, -891.822
72133.9, 26.8808, -884.576
72698.6, 25.0138, -877.599
73267.7, 23.7682, -869.991
73841.3, 23.0407, -862.339
74419.4, 22.7239, -855.194
75001.9, 22.7152, -847.694
75589.1, 22.0283, -840.799
76180.8, 21.2665, -833.564
76777.2, 20.8522, -826.114
77378.2, 20.9258, -818.804
77984, 20.6287, -812.098
78594.5, 20.3741, -805.022
79209.8, 20.303, -797.962
79829.8, 20.1962, -791.1
80454.8, 20.0514, -784.105
81084.6, 20.2219, -777.01
81719.4, 21.125, -770.68
82359.1, 20.5653, -763.976
83003.8, 20.7334, -757.223
83653.6, 20.4481, -750.153
84308.5, 20.6213, -742.768
84968.5, 21.653, -734.923
85633.7, 23.4422, -726.345
86304, 32.7452, -718.811
86979.7, 39.3929, -723.708
87660.6, 36.8883, -723.538
88346.8, 31.1172, -722.132
89038.4, 25.4909, -715.41
89735.5, 23.2468, -708.357
90437.9, 21.4183, -700.975
91145.9, 20.779, -693.906
91859.4, 20.1453, -686.534
92578.6, 20.1393, -680.636
93303.3, 19.9447, -673.748
94033.7, 19.9138, -667.795
94769.8, 19.8653, -661.711
95511.7, 19.3319, -655.486
96259.4, 19.5716, -648.868
97013, 19.6626, -642.886
97772.5, 20.4848, -636.794
98537.9, 19.9573, -631.135
99309.2, 19.881, -624.798
100087, 20.3945, -617.849
100870, 20.8912, -611.089
101660, 22.1853, -603.54
102456, 24.3878, -595.406
103258, 29.6047, -586.288
104066, 43.1769, -577.822
104881, 57.8478, -586.994
105702, 51.3025, -607.171
106529, 36.3468, -604.294
107363, 29.0191, -597.136
108204, 25.0462, -589.371
109051, 23.4445, -582.288
109904, 21.7672, -576.19
110765, 20.7131, -570.661
111632, 19.532, -564.544
112506, 18.7627, -558.932
113387, 18.1367, -553.132
114274, 17.7778, -547.417
115169, 17.5558, -542.016
116070, 17.3241, -536.739
116979, 17.2373, -531.555
117895, 17.0522, -526.431
118818, 16.9568, -521.262
119748, 17.1196, -516.081
120685, 17.6989, -511.668
121630, 17.0021, -506.69
122582, 17.2861, -502.09
123542, 16.7686, -497.413
124509, 16.9972, -492.021
125484, 17.3831, -487.939
126466, 17.087, -483.494
127456, 17.0248, -478.916
128454, 16.8231, -473.975
129459, 17.5526, -468.821
130473, 18.0941, -466.086
131494, 17.236, -461.478
132524, 16.9176, -456.789
133561, 16.7429, -452.074
134607, 16.9732, -447.633
135660, 16.9754, -443.228
136722, 16.7252, -438.506
137793, 17.4307, -434.148
138871, 17.0023, -430.049
139959, 16.8436, -425.296
141054, 16.9112, -420.403
142158, 17.2183, -415.564
143271, 17.7961, -410.65
144393, 18.9437, -405.288
145523, 21.9853, -400.275
146662, 26.1189, -398.094
147811, 27.3247, -396.847
148968, 27.2428, -395.477
150134, 26.2216, -392.974
151309, 25.4323, -389.365
152494, 24.6132, -386.246
153688, 23.6192, -382.338
154891, 22.7922, -378.75
156103, 21.6228, -374.489
157325, 20.8588, -370.011
158557, 20.4144, -365.302
159798, 20.2714, -360.561
161049, 20.5884, -355.697
162310, 21.3522, -351.515
163580, 21.1328, -347.158
164861, 21.9671, -343.285
166152, 21.3519, -339.951
167452, 20.7709, -334.394
168763, 22.0213, -329.192
170084, 22.9558, -324.671
171416, 24.2897, -320.178
172758, 25.828, -316.263
174110, 27.3385, -312.748
175473, 27.9159, -310.592
176847, 27.4683, -308.35
178231, 25.9315, -304.3
179626, 25.5364, -299.376
181033, 25.165, -293.347
182450, 25.9932, -288.03
183878, 27.1985, -282.867
185318, 27.9433, -279.192
186768, 26.5581, -274.656
188230, 25.4289, -266.981
189704, 27.8621, -257.828
191189, 32.8932, -249.952
192686, 39.879, -246.02
194194, 41.9668, -243.941
195714, 42.5909, -237.928
197247, 45.9526, -229.112
198791, 55.5016, -218.887
200347, 64.654, -213.951
201915, 81.6671, -206.048
203496, 99.1629, -220.575
205089, 106.825, -236.865
206694, 94.9349, -258.288
208313, 80.5622, -249.771
209943, 79.1887, -248.481
211587, 72.8117, -246.501
213243, 69.0462, -240.85
214913, 65.1182, -235.205
216595, 65.0066, -227.503
218291, 62.577, -223.957
219999, 62.9016, -214.732
221722, 61.8025, -200.933
223457, 72.6094, -193.266
225207, 76.0228, -189.932
226970, 79.8337, -183.628
228747, 81.0987, -171.313
230537, 90.1291, -158.839
232342, 101.224, -145.635
234161, 121.707, -125.827
235994, 179.052, -114.608
237841, 229.67, -173.855
239703, 198.332, -219.664
241580, 175.077, -231.649
243471, 149.683, -227.068
245377, 138.317, -202.525
247298, 154.775, -175.63
249234, 198.236, -154.72
251185, 256.404, -209.025
253151, 270.823, -252.176
255133, 252.275, -329.837
257130, 176.632, -360.51
259143, 129.85, -339.472
261172, 112.684, -316.914
263217, 100.789, -306.44
265277, 91.368, -293.239
267354, 83.6092, -285.428
269447, 75.7409, -274.221
271556, 70.2288, -262.117
273682, 66.7683, -246.934
275824, 71.059, -235.893
277984, 71.2407, -229.061
280160, 73.1457, -215.72
282353, 79.2914, -206.638
284563, 86.9137, -202.115
286791, 92.9778, -194.819
289036, 99.5536, -192.954
291299, 108.646, -185.289
293579, 122.191, -185.78
295878, 143.545, -195.849
298194, 136.907, -210.575
300528, 133.686, -220.497
302881, 124.467, -217.982
305252, 135.849, -220.069
307641, 116.616, -230.819
310050, 104.661, -208.725
312477, 122.936, -191.646
314923, 132.642, -193.965
317389, 151.381, -188.849
319873, 165.664, -199.438
322377, 191.668, -215.991
324901, 192.108, -254.282
327444, 169.528, -283.437
330008, 139.804, -289.181
332591, 127.056, -283.24
335195, 108.147, -274.027
337819, 108.52, -259.06
340463, 116.58, -263.597
343129, 110.118, -272.845
345815, 94.0824, -276.893
348522, 84.5776, -266.608
351250, 83.0128, -261.983
354000, 77.8712, -258.291
356771, 70.8476, -252.851
359564, 70.3352, -239.698
362379, 84.1084, -233.265
365216, 94.4458, -252.587
368075, 75.1079, -262.763
370956, 63.3048, -256.68
373860, 58.0077, -252.224
376787, 49.3749, -249.28
379737, 41.7798, -240.637
382710, 42.38, -229.6
385706, 42.0951, -227.027
388725, 37.6862, -221.804
391768, 37.098, -212.464
394835, 39.3821, -205.169
397926, 44.9643, -199.89
400000, 47.5068, -199.329
END