File: measurements/ref/TRACE01MAGPHASE.CSV
!Keysight Technologies,E4990A,MY54302532,A.03.02
!Date: Wed May 07 10:40:29 2025

BEGIN CH1_DATA
Frequency(Hz), |Z|(Ohm)-data, theta-z(deg)-data
50000, 1279.21, -88.7571
50391.4, 1268.86, -88.7635
50785.9, 1259.12, -88.7757
51183.5, 1248.9, -88.7712
51584.2, 1239, -88.7682
51988, 1229.29, -88.7517
52395, 1219.5, -88.7607
52805.1, 1209.74, -88.7578
53218.5, 1200.02, -88.7376
53635.1, 1190.64, -88.7531
54055, 1180.79, -88.7196
54478.2, 1172.24, -88.7308
54904.6, 1162.46, -88.7378
55334.5, 1153.78, -88.6808
55767.6, 1144.11, -88.7041
56204.2, 1135.68, -88.6225
56644.2, 1127.31, -88.7231
57087.6, 1117.99, -88.731
57534.5, 1108.73, -88.73
57984.9, 1099.74, -88.724
58438.9, 1090.79, -88.7061
58896.3, 1083.11, -88.7046
59357.4, 1073.9, -88.7134
59822.1, 1065.37, -88.7134
60290.4, 1056.73, -88.6958
60762.4, 1047.99, -88.7063
61238, 1040.41, -88.6525
61717.4, 1031.84, -88.6917
62200.6, 1023.23, -88.6895
62687.5, 1015.11, -88.6805
63178.3, 1006.66, -88.6858
63672.8, 998.736, -88.6755
64171.3, 990.328, -88.6763
64673.7, 982.069, -88.6578
65179.9, 973.739, -88.6355
65690.2, 965.976, -88.64
66204.4, 957.441, -88.619
66722.7, 949.367, -88.5469
67245.1, 942.601, -88.522
67771.5, 934.104, -88.5438
68302, 925.285, -88.4773
68836.7, 916.69, -88.3084
69375.6, 910.907, -87.9459
69918.7, 910.133, -87.8787
70466, 905.951, -88.0325
71017.7, 899.373, -88.1613
71573.6, 892.09, -88.282
72133.9, 884.729, -88.3018
72698.6, 877.692, -88.3961
73267.7, 870.046, -88.4588
73841.3, 862.401, -88.486
74419.4, 855.362, -88.4903
75001.9, 847.888, -88.4759
75589.1, 841.005, -88.5069
76180.8, 833.73, -88.5454
76777.2, 826.295, -88.5598
77378.2, 819.026, -88.5434
77984, 812.333, -88.552
78594.5, 805.27, -88.5566
79209.8, 798.201, -88.5489
79829.8, 791.352, -88.544
80454.8, 784.347, -88.5399
81084.6, 777.275, -88.5153
81719.4, 770.962, -88.4356
82359.1, 764.309, -88.4584
83003.8, 757.562, -88.4326
83653.6, 750.544, -88.4402
84308.5, 743.132, -88.4077
84968.5, 735.373, -88.3115
85633.7, 726.842, -88.1349
86304, 720.229, -87.3548
86979.7, 725.596, -86.9297
87660.6, 724.811, -87.13
88346.8, 722.806, -87.568
89038.4, 715.766, -87.9836
89735.5, 708.694, -88.1358
90437.9, 701.239, -88.2646
91145.9, 694.184, -88.2985
91859.4, 686.809, -88.3321
92578.6, 680.931, -88.3187
93303.3, 674.037, -88.3175
94033.7, 668.11, -88.3055
94769.8, 662.026, -88.295
95511.7, 655.787, -88.3254
96259.4, 649.209, -88.2905
97013, 643.21, -88.2669
97772.5, 637.159, -88.18
98537.9, 631.461, -88.2095
99309.2, 625.125, -88.1998
100087, 618.202, -88.1351
100870, 611.464, -88.0699
101660, 603.953, -87.9246
102456, 595.869, -87.689
103258, 586.905, -87.1442
104066, 579.308, -85.7517
104881, 589.733, -84.3972
105702, 608.976, -85.2042
106529, 605.075, -86.5704
107363, 597.583, -87.2245
108204, 589.705, -87.5681
109051, 582.612, -87.6922
109904, 576.527, -87.8325
110765, 571.042, -87.9178
111632, 564.946, -88.0184
112506, 559.314, -88.0801
113387, 553.52, -88.1284
114274, 547.742, -88.146
115169, 542.393, -88.1572
116070, 537.12, -88.1657
116979, 531.942, -88.1591
117895, 526.791, -88.1623
118818, 521.622, -88.1554
119748, 516.467, -88.1199
120685, 512.061, -88.0389
121630, 507.05, -88.0992
122582, 502.47, -88.0493
123542, 497.77, -88.0916
124509, 492.381, -88.0493
125484, 488.313, -87.9761
126466, 483.889, -87.9988
127456, 479.243, -87.9902
128454, 474.332, -87.9957
129459, 469.244, -87.8796
130473, 466.557, -87.8033
131494, 461.854, -87.8855
132524, 457.178, -87.898
133561, 452.439, -87.9044
134607, 448.044, -87.8623
135660, 443.648, -87.8376
136722, 438.861, -87.8385
137793, 434.602, -87.729
138871, 430.43, -87.7674
139959, 425.733, -87.7649
141054, 420.785, -87.7289
142158, 415.997, -87.6636
143271, 411.114, -87.5437
144393, 405.774, -87.3441
145523, 401.091, -86.8248
146662, 399.544, -86.2686
147811, 398.197, -86.1193
148968, 396.647, -86.1353
150134, 394.01, -86.2575
151309, 390.253, -86.3365
152494, 387.071, -86.42
153688, 383.118, -86.5297
154891, 379.411, -86.6171
156103, 375.079, -86.7486
157325, 370.549, -86.8226
158557, 365.846, -86.8518
159798, 361.031, -86.8423
161049, 356.232, -86.7351
162310, 352.094, -86.574
163580, 347.791, -86.5181
164861, 343.956, -86.3361
166152, 340.622, -86.4469
167452, 335.053, -86.4815
168763, 329.932, -86.2211
170084, 325.546, -85.9749
171416, 321.148, -85.682
172758, 317.377, -85.3488
174110, 314.021, -85.0313
175473, 311.94, -84.894
176847, 309.619, -84.9432
178231, 305.469, -85.168
179626, 300.52, -85.1634
181033, 294.484, -85.1383
182450, 289.255, -84.8981
183878, 284.17, -84.5634
185318, 280.554, -84.3346
186768, 275.85, -84.5193
188230, 268.155, -84.5854
189704, 259.231, -83.8639
191189, 251.998, -82.5249
192686, 249.286, -80.8171
194194, 247.594, -80.296
195714, 241.703, -79.9382
197247, 233.55, -78.76
198791, 225.437, -75.9146
200347, 222.769, -73.2722
201915, 220.685, -68.2609
203496, 242.013, -65.6259
205089, 260.478, -65.753
206694, 275.421, -69.9003
208313, 262.702, -72.1876
209943, 261.136, -72.4364
211587, 257.032, -73.7458
213243, 249.779, -74.1436
214913, 243.254, -74.4887
216595, 236.24, -73.9559
218291, 232.44, -74.2928
219999, 223.727, -73.5845
221722, 210.409, -72.8371
223457, 206.803, -69.4052
225207, 205.276, -68.2286
226970, 200.284, -66.7072
228747, 189.765, -64.7865
230537, 182.98, -60.612
232342, 177.84, -55.3985
234161, 175.342, -46.3436
235994, 211.846, -33.0628
237841, 286.375, -37.3811
239703, 294.989, -48.0278
241580, 289.664, -53.0023
243471, 271.211, -56.5487
245377, 244.702, -55.622
247298, 233.697, -48.5488
249234, 251.058, -37.8261
251185, 330.739, -39.0366
253151, 370.613, -42.848
255133, 416.035, -52.5822
257130, 401.806, -63.9184
259143, 363.659, -69.1141
261172, 335.229, -70.3538
263217, 323.088, -71.8761
265277, 307.08, -72.7525
267354, 297.482, -73.7032
269447, 284.495, -74.6137
271556, 271.294, -75.0512
273682, 255.703, -74.9133
275824, 246.116, -73.2499
277984, 239.79, -72.7044
280160, 227.849, -71.2725
282353, 221.392, -69.0225
284563, 220.119, -66.7633
286791, 215.871, -64.5471
289036, 217.086, -62.7494
291299, 214.771, -59.6868
293579, 222.25, -56.7312
295878, 242.528, -53.8394
298194, 250.673, -57.0164
300528, 257.401, -58.7247
302881, 250.676, -60.2144
305252, 258.608, -58.2111
307641, 258.778, -63.1482
310050, 233.764, -63.3949
312477, 227.754, -57.3935
314923, 234.356, -55.8708
317389, 240.363, -51.2508
319873, 258.317, -50.0635
322377, 288.858, -48.1933
324901, 319.226, -52.8697
327444, 330.236, -59.0964
330008, 321.097, -64.158
332591, 310.535, -65.7535
335195, 294.979, -68.3467
337819, 281.685, -67.2621
340463, 288.652, -66.2005
343129, 294.352, -68.0628
345815, 292.53, -71.2586
348522, 279.713, -72.4178
351250, 274.873, -72.4423
354000, 269.749, -73.2482
356771, 262.634, -74.359
359564, 249.854, -73.6562
362379, 248.03, -70.17
365216, 269.686, -69.5266
368075, 273.169, -74.0571
370956, 264.376, -76.131
373860, 258.836, -77.0639
376787, 254.054, -78.8102
379737, 244.201, -80.153
382710, 233.446, -79.5465
385706, 230.851, -79.5022
388725, 224.939, -80.3498
391768, 215.734, -80.1148
394835, 208.888, -79.1297
397926, 204.927, -77.3396
400000, 204.926, -76.625
END